# eburp1.RF - E-BURP-1 selective excitation pulse
# reference: H. Geen and R. Freeman, JMR 93, 93 (1991)
# for 90 degree excitation only with Z initial magnetization
 180.0     2.950   1.0
 180.0     8.466   1.0
 180.0    13.591   1.0
 180.0    18.354   1.0
 180.0    22.781   1.0
 180.0    26.901   1.0
 180.0    30.742   1.0
 180.0    34.329   1.0
 180.0    37.689   1.0
 180.0    40.848   1.0
 180.0    43.828   1.0
 180.0    46.653   1.0
 180.0    49.343   1.0
 180.0    51.917   1.0
 180.0    54.391   1.0
 180.0    56.779   1.0
 180.0    59.094   1.0
 180.0    61.343   1.0
 180.0    63.535   1.0
 180.0    65.673   1.0
 180.0    67.759   1.0
 180.0    69.791   1.0
 180.0    71.766   1.0
 180.0    73.679   1.0
 180.0    75.520   1.0
 180.0    77.280   1.0
 180.0    78.946   1.0
 180.0    80.505   1.0
 180.0    81.939   1.0
 180.0    83.233   1.0
 180.0    84.366   1.0
 180.0    85.319   1.0
 180.0    86.071   1.0
 180.0    86.600   1.0
 180.0    86.882   1.0
 180.0    86.894   1.0
 180.0    86.615   1.0
 180.0    86.019   1.0
 180.0    85.085   1.0
 180.0    83.790   1.0
 180.0    82.112   1.0
 180.0    80.033   1.0
 180.0    77.533   1.0
 180.0    74.597   1.0
 180.0    71.210   1.0
 180.0    67.362   1.0
 180.0    63.042   1.0
 180.0    58.247   1.0
 180.0    52.974   1.0
 180.0    47.224   1.0
 180.0    41.002   1.0
 180.0    34.317   1.0
 180.0    27.181   1.0
 180.0    19.610   1.0
 180.0    11.623   1.0
 180.0     3.242   1.0
   0.0     5.509   1.0
   0.0    14.603   1.0
   0.0    24.008   1.0
   0.0    33.696   1.0
   0.0    43.632   1.0
   0.0    53.785   1.0
   0.0    64.120   1.0
   0.0    74.604   1.0
   0.0    85.203   1.0
   0.0    95.884   1.0
   0.0   106.614   1.0
   0.0   117.363   1.0
   0.0   128.099   1.0
   0.0   138.793   1.0
   0.0   149.415   1.0
   0.0   159.937   1.0
   0.0   170.330   1.0
   0.0   180.567   1.0
   0.0   190.617   1.0
   0.0   200.452   1.0
   0.0   210.041   1.0
   0.0   219.351   1.0
   0.0   228.348   1.0
   0.0   236.997   1.0
   0.0   245.259   1.0
   0.0   253.093   1.0
   0.0   260.456   1.0
   0.0   267.301   1.0
   0.0   273.582   1.0
   0.0   279.248   1.0
   0.0   284.248   1.0
   0.0   288.531   1.0
   0.0   292.045   1.0
   0.0   294.737   1.0
   0.0   296.556   1.0
   0.0   297.455   1.0
   0.0   297.386   1.0
   0.0   296.306   1.0
   0.0   294.177   1.0
   0.0   290.963   1.0
   0.0   286.635   1.0
   0.0   281.168   1.0
   0.0   274.545   1.0
   0.0   266.750   1.0
   0.0   257.778   1.0
   0.0   247.625   1.0
   0.0   236.294   1.0
   0.0   223.792   1.0
   0.0   210.131   1.0
   0.0   195.324   1.0
   0.0   179.388   1.0
   0.0   162.342   1.0
   0.0   144.206   1.0
   0.0   125.000   1.0
   0.0   104.744   1.0
   0.0    83.458   1.0
   0.0    61.161   1.0
   0.0    37.871   1.0
   0.0    13.605   1.0
 180.0    11.618   1.0
 180.0    37.782   1.0
 180.0    64.867   1.0
 180.0    92.852   1.0
 180.0   121.713   1.0
 180.0   151.421   1.0
 180.0   181.942   1.0
 180.0   213.230   1.0
 180.0   245.236   1.0
 180.0   277.896   1.0
 180.0   311.136   1.0
 180.0   344.867   1.0
 180.0   378.988   1.0
 180.0   413.381   1.0
 180.0   447.912   1.0
 180.0   482.435   1.0
 180.0   516.785   1.0
 180.0   550.786   1.0
 180.0   584.247   1.0
 180.0   616.965   1.0
 180.0   648.728   1.0
 180.0   679.318   1.0
 180.0   708.511   1.0
 180.0   736.083   1.0
 180.0   761.810   1.0
 180.0   785.477   1.0
 180.0   806.873   1.0
 180.0   825.801   1.0
 180.0   842.079   1.0
 180.0   855.545   1.0
 180.0   866.054   1.0
 180.0   873.489   1.0
 180.0   877.755   1.0
 180.0   878.786   1.0
 180.0   876.543   1.0
 180.0   871.016   1.0
 180.0   862.222   1.0
 180.0   850.207   1.0
 180.0   835.040   1.0
 180.0   816.819   1.0
 180.0   795.659   1.0
 180.0   771.698   1.0
 180.0   745.088   1.0
 180.0   715.995   1.0
 180.0   684.593   1.0
 180.0   651.062   1.0
 180.0   615.586   1.0
 180.0   578.347   1.0
 180.0   539.523   1.0
 180.0   499.284   1.0
 180.0   457.792   1.0
 180.0   415.198   1.0
 180.0   371.639   1.0
 180.0   327.240   1.0
 180.0   282.110   1.0
 180.0   236.349   1.0
 180.0   190.040   1.0
 180.0   143.256   1.0
 180.0    96.061   1.0
 180.0    48.512   1.0
 180.0     0.660   1.0
   0.0    47.444   1.0
   0.0    95.752   1.0
   0.0   144.208   1.0
   0.0   192.754   1.0
   0.0   241.318   1.0
   0.0   289.820   1.0
   0.0   338.165   1.0
   0.0   386.246   1.0
   0.0   433.937   1.0
   0.0   481.096   1.0
   0.0   527.566   1.0
   0.0   573.174   1.0
   0.0   617.731   1.0
   0.0   661.038   1.0
   0.0   702.885   1.0
   0.0   743.055   1.0
   0.0   781.327   1.0
   0.0   817.479   1.0
   0.0   851.293   1.0
   0.0   882.559   1.0
   0.0   911.077   1.0
   0.0   936.665   1.0
   0.0   959.156   1.0
   0.0   978.408   1.0
   0.0   994.304   1.0
   0.0  1006.755   1.0
   0.0  1015.701   1.0
   0.0  1021.114   1.0
   0.0  1023.000   1.0
   0.0  1021.395   1.0
   0.0  1016.369   1.0
   0.0  1008.023   1.0
   0.0   996.487   1.0
   0.0   981.920   1.0
   0.0   964.505   1.0
   0.0   944.446   1.0
   0.0   921.968   1.0
   0.0   897.308   1.0
   0.0   870.717   1.0
   0.0   842.452   1.0
   0.0   812.772   1.0
   0.0   781.938   1.0
   0.0   750.207   1.0
   0.0   717.826   1.0
   0.0   685.036   1.0
   0.0   652.060   1.0
   0.0   619.110   1.0
   0.0   586.379   1.0
   0.0   554.042   1.0
   0.0   522.254   1.0
   0.0   491.152   1.0
   0.0   460.850   1.0
   0.0   431.447   1.0
   0.0   403.018   1.0
   0.0   375.623   1.0
   0.0   349.305   1.0
   0.0   324.093   1.0
   0.0   299.997   1.0
   0.0   277.022   1.0
   0.0   255.158   1.0
   0.0   234.388   1.0
   0.0   214.687   1.0
   0.0   196.027   1.0
   0.0   178.372   1.0
   0.0   161.687   1.0
   0.0   145.934   1.0
   0.0   131.074   1.0
   0.0   117.067   1.0
   0.0   103.877   1.0
   0.0    91.465   1.0
   0.0    79.797   1.0
   0.0    68.838   1.0
   0.0    58.555   1.0
   0.0    48.917   1.0
   0.0    39.893   1.0
   0.0    31.454   1.0
   0.0    23.571   1.0
   0.0    16.217   1.0
   0.0     9.363   1.0
   0.0     2.984   1.0
